TITLE,ZnO_B19_szklo_4
DATA TYPE,ULTRAVIOLET SPECTRUM
ORIGIN,JASCO
OWNER,FCBiR
DATE,22/10/11
TIME,12:10:50
SPECTROMETER/DATA SYSTEM,
LOCALE,1033
RESOLUTION,
DELTAX,-1
XUNITS,NANOMETERS
YUNITS,REFLECTANCE
FIRSTX, 1200.0000
LASTX,  300.0000
NPOINTS,     901
FIRSTY,     0.33382
MAXY,     0.84990
MINY,     0.22884
XYDATA
1200.0000,0.333817
1199.0000,0.334121
1198.0000,0.336783
1197.0000,0.337534
1196.0000,0.337509
1195.0000,0.334005
1194.0000,0.337345
1193.0000,0.34
1192.0000,0.334364
1191.0000,0.337533
1190.0000,0.33276
1189.0000,0.33425
1188.0000,0.340014
1187.0000,0.341553
1186.0000,0.329561
1185.0000,0.332146
1184.0000,0.341513
1183.0000,0.338525
1182.0000,0.337432
1181.0000,0.336205
1180.0000,0.340861
1179.0000,0.342643
1178.0000,0.340303
1177.0000,0.338177
1176.0000,0.334527
1175.0000,0.343304
1174.0000,0.334352
1173.0000,0.337411
1172.0000,0.341508
1171.0000,0.340674
1170.0000,0.340332
1169.0000,0.334905
1168.0000,0.341597
1167.0000,0.336764
1166.0000,0.338958
1165.0000,0.334995
1164.0000,0.338644
1163.0000,0.343145
1162.0000,0.348125
1161.0000,0.347918
1160.0000,0.338255
1159.0000,0.341663
1158.0000,0.33975
1157.0000,0.340802
1156.0000,0.345568
1155.0000,0.341484
1154.0000,0.347804
1153.0000,0.341847
1152.0000,0.338329
1151.0000,0.346389
1150.0000,0.340713
1149.0000,0.341505
1148.0000,0.343747
1147.0000,0.348661
1146.0000,0.342725
1145.0000,0.344359
1144.0000,0.348785
1143.0000,0.34808
1142.0000,0.345726
1141.0000,0.352243
1140.0000,0.349486
1139.0000,0.349247
1138.0000,0.347035
1137.0000,0.340971
1136.0000,0.346426
1135.0000,0.35085
1134.0000,0.3479
1133.0000,0.347623
1132.0000,0.345411
1131.0000,0.350084
1130.0000,0.344892
1129.0000,0.345626
1128.0000,0.343873
1127.0000,0.342437
1126.0000,0.349542
1125.0000,0.345278
1124.0000,0.341039
1123.0000,0.350804
1122.0000,0.341542
1121.0000,0.349071
1120.0000,0.34782
1119.0000,0.354873
1118.0000,0.34761
1117.0000,0.345037
1116.0000,0.351434
1115.0000,0.345519
1114.0000,0.347897
1113.0000,0.349706
1112.0000,0.351856
1111.0000,0.347512
1110.0000,0.350353
1109.0000,0.354663
1108.0000,0.353738
1107.0000,0.351198
1106.0000,0.353494
1105.0000,0.352354
1104.0000,0.350071
1103.0000,0.348947
1102.0000,0.352328
1101.0000,0.34993
1100.0000,0.356226
1099.0000,0.350937
1098.0000,0.35245
1097.0000,0.353944
1096.0000,0.350174
1095.0000,0.349207
1094.0000,0.351147
1093.0000,0.356796
1092.0000,0.3568
1091.0000,0.36087
1090.0000,0.358732
1089.0000,0.356411
1088.0000,0.356105
1087.0000,0.350841
1086.0000,0.366814
1085.0000,0.352376
1084.0000,0.360459
1083.0000,0.352696
1082.0000,0.353538
1081.0000,0.357363
1080.0000,0.355199
1079.0000,0.362256
1078.0000,0.357369
1077.0000,0.355942
1076.0000,0.357689
1075.0000,0.359307
1074.0000,0.360215
1073.0000,0.355445
1072.0000,0.360472
1071.0000,0.35875
1070.0000,0.360277
1069.0000,0.364236
1068.0000,0.356103
1067.0000,0.363632
1066.0000,0.360085
1065.0000,0.360556
1064.0000,0.356472
1063.0000,0.360239
1062.0000,0.362438
1061.0000,0.361839
1060.0000,0.362473
1059.0000,0.361028
1058.0000,0.358308
1057.0000,0.363667
1056.0000,0.374684
1055.0000,0.355761
1054.0000,0.359506
1053.0000,0.361719
1052.0000,0.369821
1051.0000,0.365281
1050.0000,0.359623
1049.0000,0.359055
1048.0000,0.374282
1047.0000,0.368055
1046.0000,0.359246
1045.0000,0.375139
1044.0000,0.370287
1043.0000,0.366298
1042.0000,0.368612
1041.0000,0.376217
1040.0000,0.36202
1039.0000,0.372063
1038.0000,0.369302
1037.0000,0.367175
1036.0000,0.373472
1035.0000,0.365417
1034.0000,0.374801
1033.0000,0.376366
1032.0000,0.37108
1031.0000,0.381295
1030.0000,0.372029
1029.0000,0.374488
1028.0000,0.372225
1027.0000,0.37537
1026.0000,0.368546
1025.0000,0.37522
1024.0000,0.384424
1023.0000,0.376698
1022.0000,0.375495
1021.0000,0.379001
1020.0000,0.377681
1019.0000,0.378805
1018.0000,0.380785
1017.0000,0.380201
1016.0000,0.38227
1015.0000,0.378094
1014.0000,0.377841
1013.0000,0.374831
1012.0000,0.387653
1011.0000,0.383517
1010.0000,0.377908
1009.0000,0.380047
1008.0000,0.379871
1007.0000,0.38503
1006.0000,0.3901
1005.0000,0.375495
1004.0000,0.383411
1003.0000,0.378506
1002.0000,0.389109
1001.0000,0.389766
1000.0000,0.382136
999.0000,0.385445
998.0000,0.394161
997.0000,0.397666
996.0000,0.387557
995.0000,0.392704
994.0000,0.392199
993.0000,0.393741
992.0000,0.389138
991.0000,0.39036
990.0000,0.384617
989.0000,0.393443
988.0000,0.393116
987.0000,0.389982
986.0000,0.397776
985.0000,0.39451
984.0000,0.401959
983.0000,0.396371
982.0000,0.392274
981.0000,0.401574
980.0000,0.386779
979.0000,0.394485
978.0000,0.40137
977.0000,0.40352
976.0000,0.405261
975.0000,0.410273
974.0000,0.402617
973.0000,0.414564
972.0000,0.40888
971.0000,0.38761
970.0000,0.403953
969.0000,0.400505
968.0000,0.39638
967.0000,0.400369
966.0000,0.411836
965.0000,0.409662
964.0000,0.405049
963.0000,0.406802
962.0000,0.404204
961.0000,0.40366
960.0000,0.406492
959.0000,0.396499
958.0000,0.392411
957.0000,0.39432
956.0000,0.392296
955.0000,0.407366
954.0000,0.404604
953.0000,0.40413
952.0000,0.406392
951.0000,0.405976
950.0000,0.403375
949.0000,0.402968
948.0000,0.416281
947.0000,0.412253
946.0000,0.409328
945.0000,0.409318
944.0000,0.396523
943.0000,0.410014
942.0000,0.41303
941.0000,0.413904
940.0000,0.427449
939.0000,0.412832
938.0000,0.414408
937.0000,0.430748
936.0000,0.426143
935.0000,0.43902
934.0000,0.430822
933.0000,0.44187
932.0000,0.424044
931.0000,0.435312
930.0000,0.432323
929.0000,0.446532
928.0000,0.437921
927.0000,0.436735
926.0000,0.446205
925.0000,0.451469
924.0000,0.438996
923.0000,0.445234
922.0000,0.45272
921.0000,0.454998
920.0000,0.462174
919.0000,0.45957
918.0000,0.484447
917.0000,0.459738
916.0000,0.471326
915.0000,0.482842
914.0000,0.477179
913.0000,0.48947
912.0000,0.446818
911.0000,0.479617
910.0000,0.491913
909.0000,0.47368
908.0000,0.483614
907.0000,0.494833
906.0000,0.486239
905.0000,0.506313
904.0000,0.488888
903.0000,0.483054
902.0000,0.50461
901.0000,0.502934
900.0000,0.47651
899.0000,0.498174
898.0000,0.497325
897.0000,0.487476
896.0000,0.527345
895.0000,0.509107
894.0000,0.510419
893.0000,0.512122
892.0000,0.516623
891.0000,0.517324
890.0000,0.530624
889.0000,0.522816
888.0000,0.535067
887.0000,0.525177
886.0000,0.547832
885.0000,0.543374
884.0000,0.518474
883.0000,0.551609
882.0000,0.523493
881.0000,0.560955
880.0000,0.534411
879.0000,0.562573
878.0000,0.557264
877.0000,0.561652
876.0000,0.55203
875.0000,0.557976
874.0000,0.569298
873.0000,0.600601
872.0000,0.584606
871.0000,0.608393
870.0000,0.57465
869.0000,0.5773
868.0000,0.597563
867.0000,0.573023
866.0000,0.571955
865.0000,0.584223
864.0000,0.574673
863.0000,0.598517
862.0000,0.606396
861.0000,0.604481
860.0000,0.63818
859.0000,0.623995
858.0000,0.60348
857.0000,0.632847
856.0000,0.594263
855.0000,0.617794
854.0000,0.587515
853.0000,0.628182
852.0000,0.628856
851.0000,0.64168
850.0000,0.228836
849.0000,0.250612
848.0000,0.230299
847.0000,0.244809
846.0000,0.242045
845.0000,0.247962
844.0000,0.253176
843.0000,0.245367
842.0000,0.246195
841.0000,0.25111
840.0000,0.251603
839.0000,0.248687
838.0000,0.246449
837.0000,0.251462
836.0000,0.246636
835.0000,0.253531
834.0000,0.247682
833.0000,0.254497
832.0000,0.253495
831.0000,0.252721
830.0000,0.25613
829.0000,0.258702
828.0000,0.245176
827.0000,0.257135
826.0000,0.254399
825.0000,0.253252
824.0000,0.260406
823.0000,0.257096
822.0000,0.259286
821.0000,0.250617
820.0000,0.26153
819.0000,0.25342
818.0000,0.257182
817.0000,0.254509
816.0000,0.258875
815.0000,0.260184
814.0000,0.259819
813.0000,0.254504
812.0000,0.257222
811.0000,0.261808
810.0000,0.260432
809.0000,0.265899
808.0000,0.264841
807.0000,0.262307
806.0000,0.26184
805.0000,0.261255
804.0000,0.260855
803.0000,0.261219
802.0000,0.262215
801.0000,0.263693
800.0000,0.260668
799.0000,0.264501
798.0000,0.26374
797.0000,0.264959
796.0000,0.266626
795.0000,0.266516
794.0000,0.262403
793.0000,0.266111
792.0000,0.26875
791.0000,0.263995
790.0000,0.27025
789.0000,0.267401
788.0000,0.265335
787.0000,0.269703
786.0000,0.267958
785.0000,0.264428
784.0000,0.268825
783.0000,0.270426
782.0000,0.272192
781.0000,0.270914
780.0000,0.270688
779.0000,0.268007
778.0000,0.269918
777.0000,0.267802
776.0000,0.271889
775.0000,0.270148
774.0000,0.270969
773.0000,0.274632
772.0000,0.267366
771.0000,0.271373
770.0000,0.275707
769.0000,0.27659
768.0000,0.273094
767.0000,0.273798
766.0000,0.278172
765.0000,0.275298
764.0000,0.275538
763.0000,0.274028
762.0000,0.276357
761.0000,0.274668
760.0000,0.275987
759.0000,0.27609
758.0000,0.277584
757.0000,0.278697
756.0000,0.277033
755.0000,0.27951
754.0000,0.279501
753.0000,0.279441
752.0000,0.279135
751.0000,0.282699
750.0000,0.283397
749.0000,0.281022
748.0000,0.283235
747.0000,0.281057
746.0000,0.278611
745.0000,0.284036
744.0000,0.278966
743.0000,0.285352
742.0000,0.282961
741.0000,0.285361
740.0000,0.286705
739.0000,0.282675
738.0000,0.285755
737.0000,0.287477
736.0000,0.284299
735.0000,0.288889
734.0000,0.286521
733.0000,0.287014
732.0000,0.28661
731.0000,0.287448
730.0000,0.285732
729.0000,0.289681
728.0000,0.290399
727.0000,0.289821
726.0000,0.290997
725.0000,0.292465
724.0000,0.291666
723.0000,0.290585
722.0000,0.293079
721.0000,0.291759
720.0000,0.29373
719.0000,0.293119
718.0000,0.294111
717.0000,0.293232
716.0000,0.295383
715.0000,0.295916
714.0000,0.297595
713.0000,0.297205
712.0000,0.298685
711.0000,0.297644
710.0000,0.296728
709.0000,0.296653
708.0000,0.299161
707.0000,0.29848
706.0000,0.29837
705.0000,0.299649
704.0000,0.297177
703.0000,0.300607
702.0000,0.301443
701.0000,0.301345
700.0000,0.303988
699.0000,0.302186
698.0000,0.303783
697.0000,0.304632
696.0000,0.304725
695.0000,0.306401
694.0000,0.308495
693.0000,0.30924
692.0000,0.311251
691.0000,0.314607
690.0000,0.314062
689.0000,0.315047
688.0000,0.316478
687.0000,0.318329
686.0000,0.318472
685.0000,0.317555
684.0000,0.317704
683.0000,0.319795
682.0000,0.319263
681.0000,0.319453
680.0000,0.318777
679.0000,0.317847
678.0000,0.317744
677.0000,0.316271
676.0000,0.317314
675.0000,0.319393
674.0000,0.317946
673.0000,0.318184
672.0000,0.319676
671.0000,0.321104
670.0000,0.32228
669.0000,0.321877
668.0000,0.322618
667.0000,0.324228
666.0000,0.321958
665.0000,0.324276
664.0000,0.324618
663.0000,0.327978
662.0000,0.326803
661.0000,0.324726
660.0000,0.327865
659.0000,0.329064
658.0000,0.328041
657.0000,0.32786
656.0000,0.330061
655.0000,0.330963
654.0000,0.330312
653.0000,0.333356
652.0000,0.332902
651.0000,0.332887
650.0000,0.332307
649.0000,0.335562
648.0000,0.3347
647.0000,0.334807
646.0000,0.336472
645.0000,0.33773
644.0000,0.337289
643.0000,0.338999
642.0000,0.33922
641.0000,0.339045
640.0000,0.341702
639.0000,0.342632
638.0000,0.341531
637.0000,0.343783
636.0000,0.34326
635.0000,0.343101
634.0000,0.346
633.0000,0.345547
632.0000,0.346588
631.0000,0.345273
630.0000,0.34704
629.0000,0.349563
628.0000,0.350157
627.0000,0.351031
626.0000,0.3515
625.0000,0.350595
624.0000,0.354069
623.0000,0.354929
622.0000,0.356021
621.0000,0.355157
620.0000,0.357164
619.0000,0.358119
618.0000,0.357068
617.0000,0.358107
616.0000,0.359414
615.0000,0.360872
614.0000,0.361155
613.0000,0.362972
612.0000,0.361665
611.0000,0.364335
610.0000,0.365637
609.0000,0.36777
608.0000,0.368505
607.0000,0.367406
606.0000,0.370541
605.0000,0.369658
604.0000,0.372733
603.0000,0.370395
602.0000,0.374404
601.0000,0.37269
600.0000,0.374349
599.0000,0.376813
598.0000,0.375816
597.0000,0.378132
596.0000,0.379638
595.0000,0.380533
594.0000,0.379311
593.0000,0.382302
592.0000,0.383301
591.0000,0.385084
590.0000,0.385604
589.0000,0.387779
588.0000,0.388961
587.0000,0.390317
586.0000,0.38919
585.0000,0.391603
584.0000,0.392593
583.0000,0.39384
582.0000,0.394506
581.0000,0.394537
580.0000,0.398008
579.0000,0.397537
578.0000,0.399276
577.0000,0.400592
576.0000,0.40246
575.0000,0.404104
574.0000,0.404188
573.0000,0.404179
572.0000,0.407131
571.0000,0.407061
570.0000,0.407045
569.0000,0.410312
568.0000,0.412652
567.0000,0.413807
566.0000,0.413632
565.0000,0.414064
564.0000,0.41736
563.0000,0.416076
562.0000,0.419102
561.0000,0.419052
560.0000,0.421158
559.0000,0.423421
558.0000,0.422926
557.0000,0.426388
556.0000,0.425601
555.0000,0.427281
554.0000,0.428352
553.0000,0.43073
552.0000,0.429995
551.0000,0.431983
550.0000,0.433563
549.0000,0.435763
548.0000,0.436233
547.0000,0.438709
546.0000,0.441361
545.0000,0.441703
544.0000,0.443062
543.0000,0.445254
542.0000,0.445259
541.0000,0.445096
540.0000,0.4477
539.0000,0.448867
538.0000,0.451634
537.0000,0.451587
536.0000,0.454318
535.0000,0.457551
534.0000,0.456455
533.0000,0.459475
532.0000,0.460802
531.0000,0.462798
530.0000,0.461755
529.0000,0.465632
528.0000,0.466174
527.0000,0.469723
526.0000,0.471838
525.0000,0.472804
524.0000,0.473896
523.0000,0.473714
522.0000,0.478391
521.0000,0.478684
520.0000,0.478798
519.0000,0.480948
518.0000,0.482957
517.0000,0.48451
516.0000,0.486915
515.0000,0.490312
514.0000,0.490458
513.0000,0.49085
512.0000,0.49402
511.0000,0.497201
510.0000,0.49636
509.0000,0.498713
508.0000,0.500171
507.0000,0.504389
506.0000,0.506744
505.0000,0.506953
504.0000,0.511428
503.0000,0.513751
502.0000,0.512724
501.0000,0.516179
500.0000,0.51867
499.0000,0.522716
498.0000,0.524621
497.0000,0.526799
496.0000,0.527326
495.0000,0.530306
494.0000,0.533285
493.0000,0.537509
492.0000,0.536054
491.0000,0.537252
490.0000,0.545439
489.0000,0.542111
488.0000,0.548424
487.0000,0.549516
486.0000,0.550751
485.0000,0.555007
484.0000,0.557331
483.0000,0.559604
482.0000,0.562492
481.0000,0.564476
480.0000,0.569204
479.0000,0.571842
478.0000,0.573778
477.0000,0.574438
476.0000,0.579003
475.0000,0.581946
474.0000,0.584
473.0000,0.587974
472.0000,0.590702
471.0000,0.593722
470.0000,0.596978
469.0000,0.601364
468.0000,0.602933
467.0000,0.605457
466.0000,0.610962
465.0000,0.6125
464.0000,0.616546
463.0000,0.619351
462.0000,0.621553
461.0000,0.625763
460.0000,0.629035
459.0000,0.635981
458.0000,0.635113
457.0000,0.642056
456.0000,0.644409
455.0000,0.647192
454.0000,0.652198
453.0000,0.652412
452.0000,0.656649
451.0000,0.660288
450.0000,0.664883
449.0000,0.670942
448.0000,0.67063
447.0000,0.67628
446.0000,0.680198
445.0000,0.682325
444.0000,0.686092
443.0000,0.690203
442.0000,0.692581
441.0000,0.696787
440.0000,0.700919
439.0000,0.705672
438.0000,0.710519
437.0000,0.711307
436.0000,0.718961
435.0000,0.723205
434.0000,0.728538
433.0000,0.7343
432.0000,0.739693
431.0000,0.73786
430.0000,0.74439
429.0000,0.748387
428.0000,0.754002
427.0000,0.758939
426.0000,0.765059
425.0000,0.767566
424.0000,0.774508
423.0000,0.781336
422.0000,0.786552
421.0000,0.79437
420.0000,0.7962
419.0000,0.798518
418.0000,0.805472
417.0000,0.808247
416.0000,0.813028
415.0000,0.81821
414.0000,0.818157
413.0000,0.821287
412.0000,0.828759
411.0000,0.828567
410.0000,0.825708
409.0000,0.828802
408.0000,0.838559
407.0000,0.841085
406.0000,0.840037
405.0000,0.84049
404.0000,0.844848
403.0000,0.84769
402.0000,0.849905
401.0000,0.847825
400.0000,0.848991
399.0000,0.845504
398.0000,0.849885
397.0000,0.848745
396.0000,0.839598
395.0000,0.83567
394.0000,0.825256
393.0000,0.822643
392.0000,0.811879
391.0000,0.804342
390.0000,0.787806
389.0000,0.782365
388.0000,0.759814
387.0000,0.745514
386.0000,0.727587
385.0000,0.709994
384.0000,0.686554
383.0000,0.665991
382.0000,0.644872
381.0000,0.620306
380.0000,0.596541
379.0000,0.574677
378.0000,0.552108
377.0000,0.549839
376.0000,0.53245
375.0000,0.516679
374.0000,0.512647
373.0000,0.499721
372.0000,0.496194
371.0000,0.487514
370.0000,0.465422
369.0000,0.455752
368.0000,0.46762
367.0000,0.469042
366.0000,0.47649
365.0000,0.474563
364.0000,0.470835
363.0000,0.476423
362.0000,0.480129
361.0000,0.482901
360.0000,0.481783
359.0000,0.489741
358.0000,0.490355
357.0000,0.4974
356.0000,0.498764
355.0000,0.498336
354.0000,0.504542
353.0000,0.512573
352.0000,0.519755
351.0000,0.52363
350.0000,0.519496
349.0000,0.52094
348.0000,0.527418
347.0000,0.531398
346.0000,0.528355
345.0000,0.54336
344.0000,0.539785
343.0000,0.544304
342.0000,0.54284
341.0000,0.541403
340.0000,0.553775
339.0000,0.552739
338.0000,0.563647
337.0000,0.568142
336.0000,0.572707
335.0000,0.568133
334.0000,0.568376
333.0000,0.570797
332.0000,0.585554
331.0000,0.593461
330.0000,0.590526
329.0000,0.596217
328.0000,0.595271
327.0000,0.603223
326.0000,0.602676
325.0000,0.61454
324.0000,0.610688
323.0000,0.612713
322.0000,0.630789
321.0000,0.630188
320.0000,0.637437
319.0000,0.633005
318.0000,0.636812
317.0000,0.650691
316.0000,0.658864
315.0000,0.666404
314.0000,0.674694
313.0000,0.690001
312.0000,0.688759
311.0000,0.700161
310.0000,0.693872
309.0000,0.706553
308.0000,0.719919
307.0000,0.715964
306.0000,0.734816
305.0000,0.733325
304.0000,0.75245
303.0000,0.762598
302.0000,0.769911
301.0000,0.786346
300.0000,0.793399

##### Extended Information
[Comments]
Sample name,ZnO_B19_szklo_4
Comment,---
User,KKr
Division,FCBiR
Company,ML System Sp. z o.o.

[Detailed Information]
Creation date,11-Oct-22 11:10 AM

Data array type,Linear data array
Horizontal axis,Wavelength [nm]
Vertical axis,%R
Start,1200 nm
End,300 nm
Data interval,1 nm
Data points,901     

[Measurement Information]
Instrument name,V-670
Model name,V-670
Serial No.,B098161154

Accessory,ARSN-733
Accessory S/N,A004861124
  Incident angle,0 degrees
  Detection angle,90 degrees

Measurement date,11-Oct-22 11:05 AM

Photometric mode,%R
Measurement range,1200 - 300 nm
Data interval,1 nm
UV/Vis bandwidth,5.0 nm
NIR bandwidth,20.0 nm
Response,Fast
Scan speed,200 nm/min
Change source at,340 nm
Change grating at,850 nm
Light source,D2/WI
Filter exchange,Step
Correction,Baseline

