TITLE,B19_ZnO_16
DATA TYPE,ULTRAVIOLET SPECTRUM
ORIGIN,JASCO
OWNER,FCBiR
DATE,22/10/05
TIME,10:17:22
SPECTROMETER/DATA SYSTEM,
LOCALE,1033
RESOLUTION,
DELTAX,-1
XUNITS,NANOMETERS
YUNITS,REFLECTANCE
FIRSTX, 1200.0000
LASTX,  300.0000
NPOINTS,     901
FIRSTY,     0.28906
MAXY,     0.65528
MINY,     0.10504
XYDATA
1200.0000,0.289058
1199.0000,0.288933
1198.0000,0.284074
1197.0000,0.290112
1196.0000,0.29238
1195.0000,0.285309
1194.0000,0.287066
1193.0000,0.291118
1192.0000,0.291831
1191.0000,0.29608
1190.0000,0.291344
1189.0000,0.29152
1188.0000,0.292501
1187.0000,0.297444
1186.0000,0.299291
1185.0000,0.290899
1184.0000,0.294923
1183.0000,0.300603
1182.0000,0.295739
1181.0000,0.294832
1180.0000,0.291558
1179.0000,0.289021
1178.0000,0.293466
1177.0000,0.295485
1176.0000,0.2976
1175.0000,0.291678
1174.0000,0.296644
1173.0000,0.294712
1172.0000,0.296691
1171.0000,0.291138
1170.0000,0.294996
1169.0000,0.291486
1168.0000,0.295173
1167.0000,0.294275
1166.0000,0.291268
1165.0000,0.284656
1164.0000,0.291391
1163.0000,0.287055
1162.0000,0.291647
1161.0000,0.291308
1160.0000,0.287539
1159.0000,0.29257
1158.0000,0.289959
1157.0000,0.292437
1156.0000,0.289667
1155.0000,0.295632
1154.0000,0.293979
1153.0000,0.291183
1152.0000,0.298342
1151.0000,0.289705
1150.0000,0.291185
1149.0000,0.294747
1148.0000,0.296858
1147.0000,0.2952
1146.0000,0.289704
1145.0000,0.293584
1144.0000,0.295466
1143.0000,0.287578
1142.0000,0.294036
1141.0000,0.30024
1140.0000,0.293514
1139.0000,0.28819
1138.0000,0.286069
1137.0000,0.285567
1136.0000,0.297176
1135.0000,0.293444
1134.0000,0.297746
1133.0000,0.295615
1132.0000,0.286803
1131.0000,0.292604
1130.0000,0.296851
1129.0000,0.298642
1128.0000,0.292289
1127.0000,0.290572
1126.0000,0.287523
1125.0000,0.293406
1124.0000,0.29024
1123.0000,0.290473
1122.0000,0.288682
1121.0000,0.29707
1120.0000,0.288716
1119.0000,0.29824
1118.0000,0.289919
1117.0000,0.296803
1116.0000,0.299124
1115.0000,0.292582
1114.0000,0.292938
1113.0000,0.293538
1112.0000,0.298309
1111.0000,0.293729
1110.0000,0.299342
1109.0000,0.288868
1108.0000,0.291967
1107.0000,0.293257
1106.0000,0.291808
1105.0000,0.293105
1104.0000,0.296987
1103.0000,0.294062
1102.0000,0.290298
1101.0000,0.295652
1100.0000,0.290557
1099.0000,0.295103
1098.0000,0.287546
1097.0000,0.29632
1096.0000,0.282546
1095.0000,0.294232
1094.0000,0.28916
1093.0000,0.29276
1092.0000,0.292724
1091.0000,0.291053
1090.0000,0.297089
1089.0000,0.2931
1088.0000,0.294998
1087.0000,0.293986
1086.0000,0.291358
1085.0000,0.29412
1084.0000,0.292234
1083.0000,0.290639
1082.0000,0.291556
1081.0000,0.291502
1080.0000,0.294796
1079.0000,0.289138
1078.0000,0.293407
1077.0000,0.297579
1076.0000,0.293201
1075.0000,0.289935
1074.0000,0.284682
1073.0000,0.29561
1072.0000,0.289685
1071.0000,0.286002
1070.0000,0.294979
1069.0000,0.290466
1068.0000,0.2911
1067.0000,0.29278
1066.0000,0.284041
1065.0000,0.291081
1064.0000,0.28718
1063.0000,0.290771
1062.0000,0.287199
1061.0000,0.28917
1060.0000,0.289898
1059.0000,0.290239
1058.0000,0.282095
1057.0000,0.285623
1056.0000,0.286244
1055.0000,0.288695
1054.0000,0.293195
1053.0000,0.292336
1052.0000,0.29345
1051.0000,0.292509
1050.0000,0.285858
1049.0000,0.286489
1048.0000,0.28553
1047.0000,0.280934
1046.0000,0.283429
1045.0000,0.281111
1044.0000,0.28011
1043.0000,0.285567
1042.0000,0.280869
1041.0000,0.287546
1040.0000,0.281159
1039.0000,0.287041
1038.0000,0.287251
1037.0000,0.289747
1036.0000,0.276597
1035.0000,0.290664
1034.0000,0.285197
1033.0000,0.288297
1032.0000,0.280602
1031.0000,0.287553
1030.0000,0.282846
1029.0000,0.277988
1028.0000,0.288791
1027.0000,0.280105
1026.0000,0.28673
1025.0000,0.285651
1024.0000,0.284002
1023.0000,0.279596
1022.0000,0.298403
1021.0000,0.280798
1020.0000,0.282477
1019.0000,0.292251
1018.0000,0.281463
1017.0000,0.282689
1016.0000,0.288551
1015.0000,0.283057
1014.0000,0.285577
1013.0000,0.285111
1012.0000,0.285544
1011.0000,0.290755
1010.0000,0.28809
1009.0000,0.278733
1008.0000,0.290487
1007.0000,0.288487
1006.0000,0.293732
1005.0000,0.284568
1004.0000,0.291328
1003.0000,0.290523
1002.0000,0.281379
1001.0000,0.288714
1000.0000,0.285359
999.0000,0.290845
998.0000,0.282486
997.0000,0.293812
996.0000,0.287559
995.0000,0.29463
994.0000,0.286852
993.0000,0.299938
992.0000,0.283815
991.0000,0.284471
990.0000,0.30315
989.0000,0.293395
988.0000,0.297101
987.0000,0.296621
986.0000,0.280283
985.0000,0.29557
984.0000,0.289954
983.0000,0.292831
982.0000,0.303488
981.0000,0.304908
980.0000,0.294397
979.0000,0.291107
978.0000,0.288515
977.0000,0.294618
976.0000,0.296248
975.0000,0.297048
974.0000,0.300671
973.0000,0.296707
972.0000,0.294267
971.0000,0.305367
970.0000,0.295632
969.0000,0.294976
968.0000,0.298406
967.0000,0.289872
966.0000,0.302179
965.0000,0.305138
964.0000,0.303153
963.0000,0.304055
962.0000,0.300699
961.0000,0.306393
960.0000,0.294981
959.0000,0.306865
958.0000,0.28535
957.0000,0.305379
956.0000,0.303536
955.0000,0.282626
954.0000,0.289771
953.0000,0.299163
952.0000,0.300218
951.0000,0.293983
950.0000,0.303668
949.0000,0.30138
948.0000,0.299745
947.0000,0.298525
946.0000,0.30138
945.0000,0.296469
944.0000,0.316025
943.0000,0.308928
942.0000,0.307391
941.0000,0.302058
940.0000,0.323741
939.0000,0.308256
938.0000,0.326279
937.0000,0.317966
936.0000,0.319631
935.0000,0.329184
934.0000,0.325087
933.0000,0.325234
932.0000,0.333395
931.0000,0.342035
930.0000,0.333807
929.0000,0.341647
928.0000,0.334507
927.0000,0.33673
926.0000,0.337981
925.0000,0.347265
924.0000,0.345454
923.0000,0.347512
922.0000,0.357225
921.0000,0.349839
920.0000,0.360897
919.0000,0.347867
918.0000,0.352023
917.0000,0.364133
916.0000,0.347629
915.0000,0.366183
914.0000,0.364884
913.0000,0.375552
912.0000,0.360384
911.0000,0.363385
910.0000,0.381507
909.0000,0.374447
908.0000,0.381969
907.0000,0.391772
906.0000,0.371265
905.0000,0.389803
904.0000,0.389918
903.0000,0.374414
902.0000,0.395886
901.0000,0.393618
900.0000,0.391678
899.0000,0.394424
898.0000,0.401982
897.0000,0.407643
896.0000,0.399588
895.0000,0.408425
894.0000,0.416854
893.0000,0.427682
892.0000,0.414638
891.0000,0.41189
890.0000,0.420792
889.0000,0.426456
888.0000,0.440892
887.0000,0.435603
886.0000,0.43889
885.0000,0.436379
884.0000,0.41524
883.0000,0.418045
882.0000,0.461937
881.0000,0.449832
880.0000,0.42978
879.0000,0.449606
878.0000,0.458995
877.0000,0.438398
876.0000,0.461379
875.0000,0.471324
874.0000,0.467592
873.0000,0.473533
872.0000,0.45085
871.0000,0.461296
870.0000,0.490319
869.0000,0.457419
868.0000,0.499368
867.0000,0.505719
866.0000,0.465577
865.0000,0.468154
864.0000,0.510496
863.0000,0.492656
862.0000,0.507371
861.0000,0.550685
860.0000,0.498105
859.0000,0.491025
858.0000,0.500801
857.0000,0.533678
856.0000,0.526065
855.0000,0.527729
854.0000,0.524993
853.0000,0.511485
852.0000,0.527308
851.0000,0.532012
850.0000,0.110961
849.0000,0.130773
848.0000,0.119865
847.0000,0.113274
846.0000,0.105043
845.0000,0.122705
844.0000,0.132402
843.0000,0.121873
842.0000,0.117063
841.0000,0.114999
840.0000,0.115909
839.0000,0.127835
838.0000,0.115995
837.0000,0.124385
836.0000,0.116088
835.0000,0.122428
834.0000,0.118362
833.0000,0.117447
832.0000,0.118128
831.0000,0.124684
830.0000,0.120303
829.0000,0.120949
828.0000,0.118184
827.0000,0.126912
826.0000,0.126062
825.0000,0.124413
824.0000,0.122848
823.0000,0.121406
822.0000,0.121189
821.0000,0.126283
820.0000,0.121315
819.0000,0.125121
818.0000,0.121476
817.0000,0.124417
816.0000,0.123795
815.0000,0.122897
814.0000,0.124638
813.0000,0.126747
812.0000,0.124792
811.0000,0.125031
810.0000,0.128162
809.0000,0.127704
808.0000,0.12503
807.0000,0.12517
806.0000,0.123939
805.0000,0.125146
804.0000,0.127714
803.0000,0.127814
802.0000,0.124014
801.0000,0.128562
800.0000,0.129024
799.0000,0.129287
798.0000,0.126298
797.0000,0.129287
796.0000,0.128602
795.0000,0.127795
794.0000,0.126037
793.0000,0.123791
792.0000,0.125555
791.0000,0.126258
790.0000,0.127127
789.0000,0.128437
788.0000,0.129371
787.0000,0.126598
786.0000,0.130021
785.0000,0.127836
784.0000,0.129086
783.0000,0.126853
782.0000,0.128125
781.0000,0.129262
780.0000,0.129895
779.0000,0.127798
778.0000,0.127082
777.0000,0.130621
776.0000,0.128293
775.0000,0.12739
774.0000,0.130431
773.0000,0.130261
772.0000,0.129858
771.0000,0.131202
770.0000,0.130413
769.0000,0.129498
768.0000,0.130147
767.0000,0.12951
766.0000,0.131213
765.0000,0.130842
764.0000,0.131119
763.0000,0.131205
762.0000,0.133151
761.0000,0.132316
760.0000,0.129887
759.0000,0.130564
758.0000,0.129071
757.0000,0.132373
756.0000,0.131695
755.0000,0.132655
754.0000,0.132615
753.0000,0.132547
752.0000,0.133658
751.0000,0.133343
750.0000,0.131657
749.0000,0.133664
748.0000,0.130904
747.0000,0.131824
746.0000,0.135641
745.0000,0.134277
744.0000,0.13414
743.0000,0.133817
742.0000,0.133733
741.0000,0.135407
740.0000,0.133862
739.0000,0.133906
738.0000,0.136298
737.0000,0.134523
736.0000,0.135672
735.0000,0.137763
734.0000,0.134579
733.0000,0.134763
732.0000,0.136973
731.0000,0.134649
730.0000,0.135715
729.0000,0.135748
728.0000,0.137667
727.0000,0.136925
726.0000,0.136825
725.0000,0.135769
724.0000,0.137541
723.0000,0.138456
722.0000,0.136199
721.0000,0.135974
720.0000,0.138415
719.0000,0.138689
718.0000,0.137619
717.0000,0.137999
716.0000,0.138425
715.0000,0.138163
714.0000,0.138062
713.0000,0.139338
712.0000,0.137816
711.0000,0.140908
710.0000,0.138489
709.0000,0.13916
708.0000,0.139717
707.0000,0.138933
706.0000,0.139702
705.0000,0.140108
704.0000,0.138982
703.0000,0.139699
702.0000,0.139442
701.0000,0.139772
700.0000,0.140684
699.0000,0.13918
698.0000,0.140167
697.0000,0.140631
696.0000,0.141381
695.0000,0.142565
694.0000,0.143705
693.0000,0.146021
692.0000,0.146316
691.0000,0.14718
690.0000,0.148554
689.0000,0.149429
688.0000,0.148901
687.0000,0.151183
686.0000,0.15145
685.0000,0.151541
684.0000,0.151857
683.0000,0.152355
682.0000,0.152217
681.0000,0.151132
680.0000,0.150457
679.0000,0.149367
678.0000,0.147955
677.0000,0.147023
676.0000,0.147999
675.0000,0.148552
674.0000,0.149222
673.0000,0.149226
672.0000,0.150219
671.0000,0.149025
670.0000,0.149772
669.0000,0.150981
668.0000,0.151233
667.0000,0.150559
666.0000,0.152761
665.0000,0.152881
664.0000,0.152323
663.0000,0.153104
662.0000,0.151408
661.0000,0.153568
660.0000,0.153162
659.0000,0.15426
658.0000,0.152536
657.0000,0.154096
656.0000,0.153666
655.0000,0.154309
654.0000,0.155258
653.0000,0.156029
652.0000,0.155597
651.0000,0.156314
650.0000,0.156449
649.0000,0.154998
648.0000,0.15635
647.0000,0.157155
646.0000,0.156002
645.0000,0.157934
644.0000,0.158361
643.0000,0.158386
642.0000,0.158669
641.0000,0.159344
640.0000,0.158072
639.0000,0.160756
638.0000,0.160468
637.0000,0.159108
636.0000,0.161169
635.0000,0.161386
634.0000,0.162034
633.0000,0.161834
632.0000,0.160902
631.0000,0.162989
630.0000,0.16298
629.0000,0.162429
628.0000,0.164117
627.0000,0.165154
626.0000,0.164192
625.0000,0.163822
624.0000,0.165219
623.0000,0.165488
622.0000,0.164615
621.0000,0.165899
620.0000,0.166087
619.0000,0.166699
618.0000,0.167079
617.0000,0.167726
616.0000,0.167748
615.0000,0.167692
614.0000,0.170447
613.0000,0.168575
612.0000,0.170847
611.0000,0.170411
610.0000,0.169895
609.0000,0.172316
608.0000,0.172301
607.0000,0.170853
606.0000,0.171507
605.0000,0.171186
604.0000,0.173759
603.0000,0.173932
602.0000,0.174376
601.0000,0.174647
600.0000,0.174985
599.0000,0.173275
598.0000,0.174953
597.0000,0.17534
596.0000,0.176374
595.0000,0.177338
594.0000,0.177279
593.0000,0.178327
592.0000,0.179431
591.0000,0.179871
590.0000,0.180087
589.0000,0.179474
588.0000,0.178995
587.0000,0.181207
586.0000,0.18175
585.0000,0.181367
584.0000,0.182622
583.0000,0.183163
582.0000,0.183326
581.0000,0.182779
580.0000,0.186101
579.0000,0.184753
578.0000,0.184926
577.0000,0.185159
576.0000,0.184971
575.0000,0.186693
574.0000,0.18741
573.0000,0.185949
572.0000,0.187453
571.0000,0.18868
570.0000,0.189103
569.0000,0.188664
568.0000,0.190911
567.0000,0.189852
566.0000,0.190413
565.0000,0.190768
564.0000,0.19084
563.0000,0.190109
562.0000,0.191982
561.0000,0.193601
560.0000,0.193356
559.0000,0.194787
558.0000,0.194117
557.0000,0.195544
556.0000,0.195464
555.0000,0.195155
554.0000,0.195716
553.0000,0.196302
552.0000,0.195794
551.0000,0.19698
550.0000,0.197387
549.0000,0.198429
548.0000,0.198747
547.0000,0.200078
546.0000,0.199692
545.0000,0.2001
544.0000,0.201398
543.0000,0.201093
542.0000,0.201638
541.0000,0.203987
540.0000,0.20305
539.0000,0.204279
538.0000,0.204327
537.0000,0.204507
536.0000,0.205335
535.0000,0.205676
534.0000,0.206329
533.0000,0.207154
532.0000,0.207639
531.0000,0.207256
530.0000,0.207557
529.0000,0.209659
528.0000,0.208745
527.0000,0.209311
526.0000,0.210171
525.0000,0.211423
524.0000,0.213241
523.0000,0.212623
522.0000,0.213771
521.0000,0.214035
520.0000,0.213228
519.0000,0.214487
518.0000,0.214447
517.0000,0.214157
516.0000,0.214651
515.0000,0.215825
514.0000,0.217981
513.0000,0.217094
512.0000,0.218619
511.0000,0.218639
510.0000,0.219953
509.0000,0.21891
508.0000,0.22074
507.0000,0.222698
506.0000,0.221031
505.0000,0.221101
504.0000,0.222812
503.0000,0.223213
502.0000,0.226345
501.0000,0.223958
500.0000,0.22464
499.0000,0.226832
498.0000,0.227723
497.0000,0.226913
496.0000,0.22955
495.0000,0.228573
494.0000,0.230615
493.0000,0.230339
492.0000,0.232798
491.0000,0.230625
490.0000,0.232601
489.0000,0.232466
488.0000,0.235376
487.0000,0.234306
486.0000,0.235763
485.0000,0.237103
484.0000,0.23674
483.0000,0.237906
482.0000,0.239861
481.0000,0.238285
480.0000,0.240384
479.0000,0.240943
478.0000,0.241656
477.0000,0.243446
476.0000,0.241351
475.0000,0.244239
474.0000,0.244304
473.0000,0.244573
472.0000,0.24551
471.0000,0.249033
470.0000,0.249151
469.0000,0.247492
468.0000,0.24945
467.0000,0.25111
466.0000,0.251821
465.0000,0.252729
464.0000,0.253299
463.0000,0.254201
462.0000,0.254651
461.0000,0.255461
460.0000,0.256446
459.0000,0.259666
458.0000,0.259888
457.0000,0.261647
456.0000,0.260611
455.0000,0.26232
454.0000,0.263216
453.0000,0.265346
452.0000,0.26675
451.0000,0.267184
450.0000,0.267753
449.0000,0.271944
448.0000,0.268287
447.0000,0.270929
446.0000,0.273046
445.0000,0.273057
444.0000,0.272739
443.0000,0.276502
442.0000,0.274794
441.0000,0.27632
440.0000,0.27591
439.0000,0.279759
438.0000,0.278521
437.0000,0.278953
436.0000,0.282056
435.0000,0.281596
434.0000,0.284652
433.0000,0.284272
432.0000,0.283374
431.0000,0.284124
430.0000,0.28549
429.0000,0.286955
428.0000,0.289921
427.0000,0.288382
426.0000,0.289039
425.0000,0.294957
424.0000,0.294355
423.0000,0.298113
422.0000,0.299064
421.0000,0.301427
420.0000,0.301035
419.0000,0.306046
418.0000,0.309302
417.0000,0.306864
416.0000,0.30939
415.0000,0.313621
414.0000,0.313917
413.0000,0.311543
412.0000,0.315281
411.0000,0.309938
410.0000,0.309729
409.0000,0.312655
408.0000,0.312867
407.0000,0.315791
406.0000,0.314902
405.0000,0.314344
404.0000,0.318229
403.0000,0.320854
402.0000,0.32155
401.0000,0.323646
400.0000,0.326509
399.0000,0.330963
398.0000,0.33371
397.0000,0.332443
396.0000,0.3334
395.0000,0.336828
394.0000,0.336767
393.0000,0.341791
392.0000,0.343363
391.0000,0.350027
390.0000,0.345863
389.0000,0.347759
388.0000,0.354968
387.0000,0.356223
386.0000,0.359341
385.0000,0.362258
384.0000,0.360997
383.0000,0.365339
382.0000,0.366268
381.0000,0.371093
380.0000,0.366902
379.0000,0.368674
378.0000,0.370772
377.0000,0.371271
376.0000,0.372434
375.0000,0.377306
374.0000,0.381853
373.0000,0.379654
372.0000,0.379224
371.0000,0.381682
370.0000,0.36233
369.0000,0.371309
368.0000,0.376476
367.0000,0.367862
366.0000,0.378571
365.0000,0.377405
364.0000,0.379976
363.0000,0.384482
362.0000,0.393007
361.0000,0.389364
360.0000,0.3992
359.0000,0.406504
358.0000,0.410992
357.0000,0.404075
356.0000,0.412587
355.0000,0.412296
354.0000,0.414023
353.0000,0.414532
352.0000,0.420773
351.0000,0.429558
350.0000,0.424942
349.0000,0.435185
348.0000,0.427959
347.0000,0.430799
346.0000,0.442398
345.0000,0.44011
344.0000,0.445237
343.0000,0.448683
342.0000,0.444979
341.0000,0.452073
340.0000,0.445616
339.0000,0.4369
338.0000,0.437646
337.0000,0.446119
336.0000,0.452913
335.0000,0.458453
334.0000,0.451873
333.0000,0.460727
332.0000,0.46162
331.0000,0.468596
330.0000,0.464627
329.0000,0.468907
328.0000,0.470698
327.0000,0.476191
326.0000,0.469669
325.0000,0.481425
324.0000,0.493648
323.0000,0.496335
322.0000,0.496385
321.0000,0.497789
320.0000,0.51104
319.0000,0.505508
318.0000,0.516174
317.0000,0.521555
316.0000,0.527191
315.0000,0.531296
314.0000,0.537856
313.0000,0.545469
312.0000,0.548421
311.0000,0.55148
310.0000,0.566073
309.0000,0.565666
308.0000,0.574611
307.0000,0.587759
306.0000,0.579948
305.0000,0.603726
304.0000,0.602383
303.0000,0.612522
302.0000,0.634626
301.0000,0.635318
300.0000,0.655275

##### Extended Information
[Comments]
Sample name,B19_ZnO_16
Comment,---
User,KKr
Division,FCBiR
Company,ML System Sp. z o.o.

[Detailed Information]
Creation date,05-Oct-22 9:17 AM

Data array type,Linear data array
Horizontal axis,Wavelength [nm]
Vertical axis,%R
Start,1200 nm
End,300 nm
Data interval,1 nm
Data points,901     

[Measurement Information]
Instrument name,V-670
Model name,V-670
Serial No.,B098161154

Accessory,ARSN-733
Accessory S/N,A004861124
  Incident angle,0 degrees
  Detection angle,90 degrees

Measurement date,05-Oct-22 9:16 AM

Photometric mode,%R
Measurement range,1200 - 300 nm
Data interval,1 nm
UV/Vis bandwidth,5.0 nm
NIR bandwidth,20.0 nm
Response,Fast
Scan speed,200 nm/min
Change source at,340 nm
Change grating at,850 nm
Light source,D2/WI
Filter exchange,Step
Correction,Baseline

