TITLE,ZnO_B20_16
DATA TYPE,ULTRAVIOLET SPECTRUM
ORIGIN,JASCO
OWNER,FCBiR
DATE,22/10/10
TIME,13:25:36
SPECTROMETER/DATA SYSTEM,
LOCALE,1033
RESOLUTION,
DELTAX,-1
XUNITS,NANOMETERS
YUNITS,REFLECTANCE
FIRSTX, 1200.0000
LASTX,  300.0000
NPOINTS,     901
FIRSTY,     0.26044
MAXY,     0.50308
MINY,     0.05841
XYDATA
1200.0000,0.260443
1199.0000,0.273936
1198.0000,0.266959
1197.0000,0.272823
1196.0000,0.265955
1195.0000,0.265429
1194.0000,0.267828
1193.0000,0.275501
1192.0000,0.267207
1191.0000,0.271833
1190.0000,0.27185
1189.0000,0.266379
1188.0000,0.271994
1187.0000,0.269136
1186.0000,0.26726
1185.0000,0.266836
1184.0000,0.266178
1183.0000,0.272669
1182.0000,0.263063
1181.0000,0.269666
1180.0000,0.268834
1179.0000,0.26546
1178.0000,0.276986
1177.0000,0.270215
1176.0000,0.269226
1175.0000,0.273426
1174.0000,0.271246
1173.0000,0.27331
1172.0000,0.267532
1171.0000,0.271082
1170.0000,0.267711
1169.0000,0.263323
1168.0000,0.274281
1167.0000,0.272192
1166.0000,0.270934
1165.0000,0.2788
1164.0000,0.272388
1163.0000,0.272298
1162.0000,0.276266
1161.0000,0.268295
1160.0000,0.272227
1159.0000,0.267783
1158.0000,0.268612
1157.0000,0.273441
1156.0000,0.272798
1155.0000,0.278398
1154.0000,0.26848
1153.0000,0.26963
1152.0000,0.271903
1151.0000,0.269816
1150.0000,0.267271
1149.0000,0.268972
1148.0000,0.268621
1147.0000,0.279003
1146.0000,0.2674
1145.0000,0.265462
1144.0000,0.270153
1143.0000,0.267469
1142.0000,0.274191
1141.0000,0.276111
1140.0000,0.269744
1139.0000,0.270459
1138.0000,0.275641
1137.0000,0.265877
1136.0000,0.266617
1135.0000,0.26869
1134.0000,0.271635
1133.0000,0.266351
1132.0000,0.271978
1131.0000,0.272658
1130.0000,0.265795
1129.0000,0.272037
1128.0000,0.27116
1127.0000,0.268807
1126.0000,0.271487
1125.0000,0.272235
1124.0000,0.27131
1123.0000,0.274964
1122.0000,0.273489
1121.0000,0.271959
1120.0000,0.26767
1119.0000,0.26634
1118.0000,0.264888
1117.0000,0.268483
1116.0000,0.269062
1115.0000,0.273219
1114.0000,0.271308
1113.0000,0.272773
1112.0000,0.267518
1111.0000,0.267135
1110.0000,0.27247
1109.0000,0.266214
1108.0000,0.275264
1107.0000,0.269986
1106.0000,0.268177
1105.0000,0.273066
1104.0000,0.270499
1103.0000,0.267572
1102.0000,0.266705
1101.0000,0.274122
1100.0000,0.270851
1099.0000,0.272531
1098.0000,0.274394
1097.0000,0.273019
1096.0000,0.27051
1095.0000,0.265425
1094.0000,0.266061
1093.0000,0.268944
1092.0000,0.268388
1091.0000,0.267206
1090.0000,0.268681
1089.0000,0.270157
1088.0000,0.264076
1087.0000,0.27111
1086.0000,0.273213
1085.0000,0.269205
1084.0000,0.268151
1083.0000,0.264857
1082.0000,0.2686
1081.0000,0.268402
1080.0000,0.266799
1079.0000,0.268793
1078.0000,0.266466
1077.0000,0.265358
1076.0000,0.274168
1075.0000,0.273911
1074.0000,0.267769
1073.0000,0.268278
1072.0000,0.267976
1071.0000,0.268723
1070.0000,0.268965
1069.0000,0.275554
1068.0000,0.262552
1067.0000,0.271789
1066.0000,0.266005
1065.0000,0.262009
1064.0000,0.270566
1063.0000,0.271531
1062.0000,0.271214
1061.0000,0.268301
1060.0000,0.269249
1059.0000,0.267778
1058.0000,0.267564
1057.0000,0.271984
1056.0000,0.268421
1055.0000,0.267144
1054.0000,0.262248
1053.0000,0.263863
1052.0000,0.268777
1051.0000,0.264364
1050.0000,0.262801
1049.0000,0.267933
1048.0000,0.263883
1047.0000,0.265457
1046.0000,0.26585
1045.0000,0.264114
1044.0000,0.264031
1043.0000,0.262566
1042.0000,0.263482
1041.0000,0.268911
1040.0000,0.267167
1039.0000,0.25905
1038.0000,0.26758
1037.0000,0.266585
1036.0000,0.272599
1035.0000,0.256204
1034.0000,0.264914
1033.0000,0.259337
1032.0000,0.263069
1031.0000,0.26671
1030.0000,0.269519
1029.0000,0.263735
1028.0000,0.269448
1027.0000,0.265035
1026.0000,0.270056
1025.0000,0.266274
1024.0000,0.263145
1023.0000,0.262671
1022.0000,0.266886
1021.0000,0.263362
1020.0000,0.264273
1019.0000,0.268088
1018.0000,0.259457
1017.0000,0.268485
1016.0000,0.269532
1015.0000,0.259526
1014.0000,0.268372
1013.0000,0.26432
1012.0000,0.268059
1011.0000,0.267833
1010.0000,0.259286
1009.0000,0.269966
1008.0000,0.267879
1007.0000,0.26679
1006.0000,0.272865
1005.0000,0.268787
1004.0000,0.269104
1003.0000,0.269215
1002.0000,0.279509
1001.0000,0.263481
1000.0000,0.268627
999.0000,0.281879
998.0000,0.268378
997.0000,0.269912
996.0000,0.270762
995.0000,0.268339
994.0000,0.26912
993.0000,0.270719
992.0000,0.276179
991.0000,0.262845
990.0000,0.27048
989.0000,0.272423
988.0000,0.270194
987.0000,0.265312
986.0000,0.277199
985.0000,0.275081
984.0000,0.274022
983.0000,0.270899
982.0000,0.274425
981.0000,0.272208
980.0000,0.260893
979.0000,0.278753
978.0000,0.282859
977.0000,0.273346
976.0000,0.278724
975.0000,0.279004
974.0000,0.276882
973.0000,0.278753
972.0000,0.271428
971.0000,0.275751
970.0000,0.278362
969.0000,0.262417
968.0000,0.280923
967.0000,0.278345
966.0000,0.281804
965.0000,0.274788
964.0000,0.272299
963.0000,0.283168
962.0000,0.278725
961.0000,0.281046
960.0000,0.286849
959.0000,0.275318
958.0000,0.276685
957.0000,0.288763
956.0000,0.276936
955.0000,0.283678
954.0000,0.271302
953.0000,0.293266
952.0000,0.288374
951.0000,0.283609
950.0000,0.279964
949.0000,0.278154
948.0000,0.28754
947.0000,0.287266
946.0000,0.282072
945.0000,0.284517
944.0000,0.276208
943.0000,0.279814
942.0000,0.287105
941.0000,0.291249
940.0000,0.289033
939.0000,0.278262
938.0000,0.287795
937.0000,0.287278
936.0000,0.306242
935.0000,0.312583
934.0000,0.296438
933.0000,0.300292
932.0000,0.304803
931.0000,0.297073
930.0000,0.315462
929.0000,0.304769
928.0000,0.32259
927.0000,0.321787
926.0000,0.30894
925.0000,0.328598
924.0000,0.31722
923.0000,0.333717
922.0000,0.326431
921.0000,0.339664
920.0000,0.317926
919.0000,0.333214
918.0000,0.334785
917.0000,0.333101
916.0000,0.339005
915.0000,0.334571
914.0000,0.332204
913.0000,0.330318
912.0000,0.332056
911.0000,0.348457
910.0000,0.340135
909.0000,0.355112
908.0000,0.337495
907.0000,0.339096
906.0000,0.346585
905.0000,0.341051
904.0000,0.357084
903.0000,0.35501
902.0000,0.354439
901.0000,0.357536
900.0000,0.376535
899.0000,0.376819
898.0000,0.365904
897.0000,0.357954
896.0000,0.368608
895.0000,0.35209
894.0000,0.367409
893.0000,0.375839
892.0000,0.391985
891.0000,0.362998
890.0000,0.382901
889.0000,0.38003
888.0000,0.379198
887.0000,0.375817
886.0000,0.351199
885.0000,0.389315
884.0000,0.38849
883.0000,0.372125
882.0000,0.389867
881.0000,0.401245
880.0000,0.400633
879.0000,0.425757
878.0000,0.418521
877.0000,0.421055
876.0000,0.406538
875.0000,0.412055
874.0000,0.431513
873.0000,0.42341
872.0000,0.414583
871.0000,0.412908
870.0000,0.433529
869.0000,0.408417
868.0000,0.436351
867.0000,0.44263
866.0000,0.44013
865.0000,0.458502
864.0000,0.451844
863.0000,0.469364
862.0000,0.441945
861.0000,0.459293
860.0000,0.423199
859.0000,0.496501
858.0000,0.471635
857.0000,0.44727
856.0000,0.474136
855.0000,0.443967
854.0000,0.48456
853.0000,0.503085
852.0000,0.489661
851.0000,0.49022
850.0000,0.0747373
849.0000,0.0584078
848.0000,0.0809846
847.0000,0.0998038
846.0000,0.0767778
845.0000,0.0899844
844.0000,0.0932167
843.0000,0.103404
842.0000,0.103124
841.0000,0.112371
840.0000,0.0996625
839.0000,0.104662
838.0000,0.110804
837.0000,0.102989
836.0000,0.108806
835.0000,0.117056
834.0000,0.113385
833.0000,0.110468
832.0000,0.119131
831.0000,0.114988
830.0000,0.116069
829.0000,0.118204
828.0000,0.116782
827.0000,0.119896
826.0000,0.114151
825.0000,0.111978
824.0000,0.116991
823.0000,0.115613
822.0000,0.11467
821.0000,0.118387
820.0000,0.117724
819.0000,0.118741
818.0000,0.119898
817.0000,0.115559
816.0000,0.122771
815.0000,0.118699
814.0000,0.118073
813.0000,0.115303
812.0000,0.1221
811.0000,0.12095
810.0000,0.117928
809.0000,0.120725
808.0000,0.11744
807.0000,0.119402
806.0000,0.12204
805.0000,0.120502
804.0000,0.12054
803.0000,0.119899
802.0000,0.121715
801.0000,0.122218
800.0000,0.12112
799.0000,0.12198
798.0000,0.12401
797.0000,0.121581
796.0000,0.119664
795.0000,0.122013
794.0000,0.122612
793.0000,0.121645
792.0000,0.121782
791.0000,0.124026
790.0000,0.123363
789.0000,0.119133
788.0000,0.120836
787.0000,0.123699
786.0000,0.126345
785.0000,0.122103
784.0000,0.123086
783.0000,0.126202
782.0000,0.124915
781.0000,0.125385
780.0000,0.127549
779.0000,0.123836
778.0000,0.123673
777.0000,0.12487
776.0000,0.125662
775.0000,0.126125
774.0000,0.125404
773.0000,0.125847
772.0000,0.125937
771.0000,0.125446
770.0000,0.126629
769.0000,0.125311
768.0000,0.125288
767.0000,0.1249
766.0000,0.125299
765.0000,0.12286
764.0000,0.127201
763.0000,0.125267
762.0000,0.128033
761.0000,0.126617
760.0000,0.127392
759.0000,0.128787
758.0000,0.127198
757.0000,0.127549
756.0000,0.129571
755.0000,0.12675
754.0000,0.125884
753.0000,0.12778
752.0000,0.129264
751.0000,0.127197
750.0000,0.129159
749.0000,0.127187
748.0000,0.126908
747.0000,0.129405
746.0000,0.133274
745.0000,0.129317
744.0000,0.131185
743.0000,0.129096
742.0000,0.132169
741.0000,0.131325
740.0000,0.130904
739.0000,0.130806
738.0000,0.129153
737.0000,0.130642
736.0000,0.13363
735.0000,0.130315
734.0000,0.131453
733.0000,0.133493
732.0000,0.131669
731.0000,0.132056
730.0000,0.134194
729.0000,0.13142
728.0000,0.133034
727.0000,0.132367
726.0000,0.13285
725.0000,0.133492
724.0000,0.134324
723.0000,0.136304
722.0000,0.133563
721.0000,0.133465
720.0000,0.134068
719.0000,0.135456
718.0000,0.135153
717.0000,0.135141
716.0000,0.135904
715.0000,0.134956
714.0000,0.136061
713.0000,0.135569
712.0000,0.136094
711.0000,0.135593
710.0000,0.134446
709.0000,0.134603
708.0000,0.134979
707.0000,0.135909
706.0000,0.13593
705.0000,0.136005
704.0000,0.135232
703.0000,0.135691
702.0000,0.135975
701.0000,0.134377
700.0000,0.135054
699.0000,0.13533
698.0000,0.137627
697.0000,0.137658
696.0000,0.138898
695.0000,0.138562
694.0000,0.141169
693.0000,0.141632
692.0000,0.142352
691.0000,0.143164
690.0000,0.145441
689.0000,0.146305
688.0000,0.147298
687.0000,0.146896
686.0000,0.148118
685.0000,0.148486
684.0000,0.146819
683.0000,0.147875
682.0000,0.147454
681.0000,0.148065
680.0000,0.14631
679.0000,0.144588
678.0000,0.142316
677.0000,0.142424
676.0000,0.143173
675.0000,0.142795
674.0000,0.143571
673.0000,0.145465
672.0000,0.144247
671.0000,0.14478
670.0000,0.145014
669.0000,0.145844
668.0000,0.145037
667.0000,0.144607
666.0000,0.146821
665.0000,0.146215
664.0000,0.145968
663.0000,0.146865
662.0000,0.146706
661.0000,0.147897
660.0000,0.147808
659.0000,0.147377
658.0000,0.148271
657.0000,0.147164
656.0000,0.149628
655.0000,0.149195
654.0000,0.148879
653.0000,0.148609
652.0000,0.148293
651.0000,0.149438
650.0000,0.15124
649.0000,0.149091
648.0000,0.151392
647.0000,0.151261
646.0000,0.151856
645.0000,0.151663
644.0000,0.15116
643.0000,0.151889
642.0000,0.152147
641.0000,0.152483
640.0000,0.152153
639.0000,0.152954
638.0000,0.153618
637.0000,0.151945
636.0000,0.154224
635.0000,0.15415
634.0000,0.154432
633.0000,0.154659
632.0000,0.155568
631.0000,0.153791
630.0000,0.155789
629.0000,0.15523
628.0000,0.154723
627.0000,0.155629
626.0000,0.156276
625.0000,0.157526
624.0000,0.156521
623.0000,0.157111
622.0000,0.159049
621.0000,0.157435
620.0000,0.159267
619.0000,0.158857
618.0000,0.159396
617.0000,0.159292
616.0000,0.160135
615.0000,0.157995
614.0000,0.160601
613.0000,0.159474
612.0000,0.161643
611.0000,0.161434
610.0000,0.16166
609.0000,0.161644
608.0000,0.161913
607.0000,0.162769
606.0000,0.163736
605.0000,0.162645
604.0000,0.162979
603.0000,0.162945
602.0000,0.166107
601.0000,0.165597
600.0000,0.164864
599.0000,0.165308
598.0000,0.165887
597.0000,0.166415
596.0000,0.16597
595.0000,0.164686
594.0000,0.166796
593.0000,0.167343
592.0000,0.166803
591.0000,0.167606
590.0000,0.168248
589.0000,0.167682
588.0000,0.167768
587.0000,0.168718
586.0000,0.169518
585.0000,0.170703
584.0000,0.1698
583.0000,0.169846
582.0000,0.17024
581.0000,0.17177
580.0000,0.171213
579.0000,0.170922
578.0000,0.170967
577.0000,0.172642
576.0000,0.172994
575.0000,0.173929
574.0000,0.173468
573.0000,0.173876
572.0000,0.174385
571.0000,0.174366
570.0000,0.176075
569.0000,0.176162
568.0000,0.175939
567.0000,0.177468
566.0000,0.176896
565.0000,0.17661
564.0000,0.178361
563.0000,0.178269
562.0000,0.177818
561.0000,0.178799
560.0000,0.178514
559.0000,0.180115
558.0000,0.178144
557.0000,0.179825
556.0000,0.181068
555.0000,0.180098
554.0000,0.181307
553.0000,0.182472
552.0000,0.183004
551.0000,0.182853
550.0000,0.182103
549.0000,0.182811
548.0000,0.183175
547.0000,0.184604
546.0000,0.185497
545.0000,0.185929
544.0000,0.185831
543.0000,0.186319
542.0000,0.185747
541.0000,0.187563
540.0000,0.186947
539.0000,0.188439
538.0000,0.189854
537.0000,0.188695
536.0000,0.189417
535.0000,0.189237
534.0000,0.189243
533.0000,0.190466
532.0000,0.190717
531.0000,0.191776
530.0000,0.192311
529.0000,0.192897
528.0000,0.193432
527.0000,0.193766
526.0000,0.19263
525.0000,0.194502
524.0000,0.195445
523.0000,0.195365
522.0000,0.196037
521.0000,0.19506
520.0000,0.19538
519.0000,0.19623
518.0000,0.197194
517.0000,0.197755
516.0000,0.197598
515.0000,0.198626
514.0000,0.197246
513.0000,0.198885
512.0000,0.19997
511.0000,0.198951
510.0000,0.200546
509.0000,0.200117
508.0000,0.202465
507.0000,0.201424
506.0000,0.201969
505.0000,0.203085
504.0000,0.204277
503.0000,0.203387
502.0000,0.204251
501.0000,0.204449
500.0000,0.205897
499.0000,0.205519
498.0000,0.206176
497.0000,0.205696
496.0000,0.207541
495.0000,0.208533
494.0000,0.208603
493.0000,0.210381
492.0000,0.209257
491.0000,0.211594
490.0000,0.209581
489.0000,0.211766
488.0000,0.211602
487.0000,0.211314
486.0000,0.212068
485.0000,0.213788
484.0000,0.214441
483.0000,0.21439
482.0000,0.215281
481.0000,0.215246
480.0000,0.216076
479.0000,0.216248
478.0000,0.217301
477.0000,0.217963
476.0000,0.218287
475.0000,0.220498
474.0000,0.218451
473.0000,0.219717
472.0000,0.220971
471.0000,0.220715
470.0000,0.221971
469.0000,0.220662
468.0000,0.223333
467.0000,0.223088
466.0000,0.223966
465.0000,0.223676
464.0000,0.225126
463.0000,0.225048
462.0000,0.227904
461.0000,0.227099
460.0000,0.229494
459.0000,0.230036
458.0000,0.228924
457.0000,0.231687
456.0000,0.23342
455.0000,0.233036
454.0000,0.233646
453.0000,0.2357
452.0000,0.235322
451.0000,0.23669
450.0000,0.238103
449.0000,0.239794
448.0000,0.238228
447.0000,0.241262
446.0000,0.237629
445.0000,0.238193
444.0000,0.24176
443.0000,0.241721
442.0000,0.242721
441.0000,0.243811
440.0000,0.242197
439.0000,0.244884
438.0000,0.244206
437.0000,0.24702
436.0000,0.246771
435.0000,0.244655
434.0000,0.246126
433.0000,0.247176
432.0000,0.248521
431.0000,0.249865
430.0000,0.248764
429.0000,0.248946
428.0000,0.248929
427.0000,0.250403
426.0000,0.251187
425.0000,0.253797
424.0000,0.25334
423.0000,0.254776
422.0000,0.259177
421.0000,0.259566
420.0000,0.26282
419.0000,0.258359
418.0000,0.260597
417.0000,0.26181
416.0000,0.26187
415.0000,0.264306
414.0000,0.262859
413.0000,0.263982
412.0000,0.266548
411.0000,0.262309
410.0000,0.263436
409.0000,0.2625
408.0000,0.262282
407.0000,0.264594
406.0000,0.265276
405.0000,0.263802
404.0000,0.268752
403.0000,0.266011
402.0000,0.266191
401.0000,0.272233
400.0000,0.27236
399.0000,0.27182
398.0000,0.275556
397.0000,0.275343
396.0000,0.276505
395.0000,0.280424
394.0000,0.279281
393.0000,0.280435
392.0000,0.283378
391.0000,0.283564
390.0000,0.285521
389.0000,0.289189
388.0000,0.293013
387.0000,0.291176
386.0000,0.292424
385.0000,0.298667
384.0000,0.296536
383.0000,0.297918
382.0000,0.296665
381.0000,0.298474
380.0000,0.303126
379.0000,0.297595
378.0000,0.300961
377.0000,0.300361
376.0000,0.306069
375.0000,0.302151
374.0000,0.301232
373.0000,0.301902
372.0000,0.297541
371.0000,0.304934
370.0000,0.283932
369.0000,0.289679
368.0000,0.28806
367.0000,0.28866
366.0000,0.296258
365.0000,0.294521
364.0000,0.29459
363.0000,0.293231
362.0000,0.297448
361.0000,0.296523
360.0000,0.296934
359.0000,0.30535
358.0000,0.308912
357.0000,0.30505
356.0000,0.311183
355.0000,0.307803
354.0000,0.312422
353.0000,0.312423
352.0000,0.314592
351.0000,0.324628
350.0000,0.321354
349.0000,0.317718
348.0000,0.312774
347.0000,0.326116
346.0000,0.324351
345.0000,0.332046
344.0000,0.322539
343.0000,0.325494
342.0000,0.332789
341.0000,0.324501
340.0000,0.320247
339.0000,0.33129
338.0000,0.327682
337.0000,0.3298
336.0000,0.332226
335.0000,0.327403
334.0000,0.334976
333.0000,0.338721
332.0000,0.342555
331.0000,0.345572
330.0000,0.343756
329.0000,0.339687
328.0000,0.348983
327.0000,0.351992
326.0000,0.355319
325.0000,0.359036
324.0000,0.361801
323.0000,0.366763
322.0000,0.370445
321.0000,0.372969
320.0000,0.369997
319.0000,0.37012
318.0000,0.379934
317.0000,0.383065
316.0000,0.383614
315.0000,0.380692
314.0000,0.39361
313.0000,0.403147
312.0000,0.398615
311.0000,0.391931
310.0000,0.401924
309.0000,0.405007
308.0000,0.416793
307.0000,0.412408
306.0000,0.414883
305.0000,0.420183
304.0000,0.425881
303.0000,0.421979
302.0000,0.423061
301.0000,0.424014
300.0000,0.435995

##### Extended Information
[Comments]
Sample name,ZnO_B20_16
Comment,---
User,KKr
Division,FCBiR
Company,ML System Sp. z o.o.

[Detailed Information]
Creation date,10-Oct-22 12:25 PM

Data array type,Linear data array
Horizontal axis,Wavelength [nm]
Vertical axis,%R
Start,1200 nm
End,300 nm
Data interval,1 nm
Data points,901     

[Measurement Information]
Instrument name,V-670
Model name,V-670
Serial No.,B098161154

Accessory,ARSN-733
Accessory S/N,A004861124
  Incident angle,0 degrees
  Detection angle,90 degrees

Measurement date,10-Oct-22 12:24 PM

Photometric mode,%R
Measurement range,1200 - 300 nm
Data interval,1 nm
UV/Vis bandwidth,5.0 nm
NIR bandwidth,20.0 nm
Response,Fast
Scan speed,200 nm/min
Change source at,340 nm
Change grating at,850 nm
Light source,D2/WI
Filter exchange,Step
Correction,Baseline

